load('similation.mat')
Untitled5
Untitled5
Untitled5
Untitled5
{Error using <a href="matlab:matlab.internal.language.introspective.errorDocCallback('plot')" style="font-weight:bold">plot</a>
Data must be numeric, datetime, duration or an array convertible to double.

Error in <a href="matlab:matlab.internal.language.introspective.errorDocCallback('Untitled5', 'C:\Users\yurdaer\Dropbox\MAH\2017-vår\Inbgyggda System och signaler\Reglerteknik\1504e\Untitled5.m', 58)" style="font-weight:bold">Untitled5</a> (<a href="matlab: opentoline('C:\Users\yurdaer\Dropbox\MAH\2017-vår\Inbgyggda System och signaler\Reglerteknik\1504e\Untitled5.m',58,0)">line 58</a>)
plot(t, G1*27.8);
} 
opentoline('C:\Users\yurdaer\Dropbox\MAH\2017-vår\Inbgyggda System och signaler\Reglerteknik\1504e\Untitled5.m',58,0)
Untitled5
Untitled5
Untitled5
Untitled5
Untitled5
Untitled5
Untitled5
Untitled5
Untitled5
Untitled5
Untitled5
Untitled5
Untitled5

a =

    0.9884


b =

    0.0719


G1 =
 
   0.07195
  ----------
  z - 0.9884
 
Sample time: 1 seconds
Discrete-time transfer function.


a =

    0.9958


b =

    0.0247


sim22 =
 
   0.02475
  ----------
  z - 0.9958
 
Sample time: 1 seconds
Discrete-time transfer function.

{Error using <a href="matlab:matlab.internal.language.introspective.errorDocCallback('InputOutputModel/subsref', 'C:\Program Files\MATLAB\R2016b\toolbox\shared\controllib\engine\@InputOutputModel\subsref.m', 43)" style="font-weight:bold">InputOutputModel/subsref</a> (<a href="matlab: opentoline('C:\Program Files\MATLAB\R2016b\toolbox\shared\controllib\engine\@InputOutputModel\subsref.m',43,0)">line 43</a>)
Subscript no. 1 is out of range.

Error in <a href="matlab:matlab.internal.language.introspective.errorDocCallback('Untitled5', 'C:\Users\yurdaer\Dropbox\MAH\2017-vår\Inbgyggda System och signaler\Reglerteknik\1504e\Untitled5.m', 78)" style="font-weight:bold">Untitled5</a> (<a href="matlab: opentoline('C:\Users\yurdaer\Dropbox\MAH\2017-vår\Inbgyggda System och signaler\Reglerteknik\1504e\Untitled5.m',78,0)">line 78</a>)
    yfsim(k)= sim22(k+1,1);
} 
opentoline('C:\Users\yurdaer\Dropbox\MAH\2017-vår\Inbgyggda System och signaler\Reglerteknik\1504e\Untitled5.m',78,0)
Untitled5

a =

    0.9884


b =

    0.0719


G1 =
 
   0.07195
  ----------
  z - 0.9884
 
Sample time: 1 seconds
Discrete-time transfer function.


a =

    0.9958


b =

    0.0247


G2 =
 
   0.02475
  ----------
  z - 0.9958
 
Sample time: 1 seconds
Discrete-time transfer function.


sim2 =

         0
         0
    0.0018
    0.0053
    0.0106
    0.0175
    0.0261
    0.0364
    0.0483
    0.0618
    0.0768
    0.0934
    0.1115
    0.1311
    0.1521
    0.1746
    0.1985
    0.2238
    0.2505
    0.2785
    0.3078
    0.3385
    0.3704
    0.4036
    0.4380
    0.4736
    0.5104
    0.5484
    0.5876
    0.6279
    0.6693
    0.7118
    0.7553
    0.8000
    0.8456
    0.8923
    0.9400
    0.9886
    1.0383
    1.0888
    1.1403
    1.1927
    1.2460
    1.3002
    1.3552
    1.4111
    1.4678
    1.5254
    1.5837
    1.6428
    1.7027
    1.7633
    1.8247
    1.8867
    1.9495
    2.0130
    2.0772
    2.1420
    2.2075
    2.2736
    2.3403
    2.4077
    2.4757
    2.5442
    2.6133
    2.6830
    2.7532
    2.8240
    2.8952
    2.9670
    3.0393
    3.1121
    3.1854
    3.2591
    3.3333
    3.4079
    3.4830
    3.5585
    3.6344
    3.7107
    3.7874
    3.8645
    3.9419
    4.0198
    4.0979
    4.1765
    4.2553
    4.3345
    4.4140
    4.4938
    4.5739
    4.6543
    4.7350
    4.8159
    4.8972
    4.9786
    5.0604
    5.1423
    5.2245
    5.3070
    5.3896
    5.4725
    5.5555
    5.6388
    5.7222
    5.8059
    5.8897
    5.9736
    6.0578
    6.1421
    6.2265
    6.3111
    6.3958
    6.4806
    6.5656
    6.6507
    6.7359
    6.8211
    6.9065
    6.9920
    7.0776
    7.1633
    7.2490
    7.3348
    7.4207
    7.5066
    7.5926
    7.6786
    7.7647
    7.8508
    7.9369
    8.0231
    8.1093
    8.1956
    8.2818
    8.3681
    8.4543
    8.5406
    8.6269
    8.7131
    8.7994
    8.8856
    8.9719
    9.0581
    9.1442
    9.2304
    9.3165
    9.4026
    9.4886
    9.5746
    9.6606
    9.7465
    9.8323
    9.9181
   10.0038
   10.0895
   10.1750
   10.2606
   10.3460
   10.4314
   10.5167
   10.6019
   10.6870
   10.7720
   10.8570
   10.9418
   11.0266
   11.1112
   11.1958
   11.2802
   11.3646
   11.4488
   11.5329
   11.6169
   11.7008
   11.7846
   11.8682
   11.9518
   12.0352
   12.1184
   12.2016
   12.2846
   12.3675
   12.4502
   12.5328
   12.6153
   12.6976
   12.7798
   12.8619
   12.9438
   13.0255
   13.1071
   13.1886
   13.2698
   13.3510
   13.4320
   13.5128
   13.5935
   13.6740
   13.7543
   13.8345
   13.9145
   13.9943
   14.0740
   14.1535
   14.2329
   14.3121
   14.3911
   14.4699
   14.5485
   14.6270
   14.7053
   14.7834
   14.8614
   14.9391
   15.0167
   15.0941
   15.1713
   15.2484
   15.3252
   15.4019
   15.4784
   15.5547
   15.6308
   15.7067
   15.7824
   15.8580
   15.9333
   16.0085
   16.0834
   16.1582
   16.2328
   16.3072
   16.3814
   16.4553
   16.5291
   16.6027
   16.6762
   16.7494
   16.8224
   16.8952
   16.9678
   17.0402
   17.1124
   17.1845
   17.2563
   17.3279
   17.3993
   17.4705
   17.5415
   17.6123
   17.6829
   17.7534
   17.8236
   17.8936
   17.9634
   18.0329
   18.1023
   18.1715
   18.2405
   18.3093
   18.3779
   18.4462
   18.5144
   18.5824
   18.6501
   18.7177
   18.7850
   18.8522
   18.9191
   18.9858
   19.0524
   19.1187
   19.1848
   19.2507
   19.3164
   19.3819
   19.4472
   19.5123
   19.5772
   19.6419
   19.7063
   19.7706
   19.8347
   19.8986
   19.9622
   20.0257
   20.0889
   20.1520
   20.2148
   20.2774
   20.3399
   20.4021
   20.4641
   20.5259
   20.5876
   20.6490
   20.7102
   20.7712
   20.8320
   20.8926
   20.9530
   21.0132
   21.0732
   21.1330
   21.1926
   21.2520
   21.3112
   21.3702
   21.4290
   21.4876
   21.5460
   21.6042
   21.6622
   21.7200
   21.7776
   21.8350
   21.8923
   21.9493
   22.0061
   22.0627
   22.1191
   22.1753
   22.2314
   22.2872
   22.3428
   22.3983
   22.4535
   22.5086
   22.5635
   22.6181
   22.6726
   22.7269
   22.7810
   22.8349
   22.8886
   22.9421
   22.9954
   23.0486
   23.1015
   23.1543
   23.2069
   23.2592
   23.3114
   23.3634
   23.4153
   23.4669
   23.5183
   23.5696
   23.6207
   23.6716
   23.7223
   23.7728
   23.8231
   23.8733
   23.9232
   23.9730
   24.0226
   24.0720
   24.1213
   24.1703
   24.2192
   24.2679
   24.3164
   24.3648
   24.4129
   24.4609
   24.5087
   24.5564
   24.6038
   24.6511
   24.6982
   24.7451
   24.7919
   24.8384
   24.8848
   24.9311
   24.9771
   25.0230
   25.0687
   25.1143
   25.1596
   25.2048
   25.2499
   25.2947
   25.3394
   25.3839
   25.4283
   25.4724
   25.5165
   25.5603
   25.6040
   25.6475
   25.6909
   25.7341
   25.7771
   25.8199
   25.8626
   25.9052
   25.9475
   25.9897
   26.0318
   26.0737
   26.1154
   26.1570
   26.1984
   26.2396
   26.2807
   26.3216
   26.3624
   26.4030
   26.4435
   26.4838
   26.5239
   26.5639
   26.6038
   26.6434
   26.6830
   26.7223
   26.7616
   26.8006
   26.8396
   26.8783
   26.9169
   26.9554
   26.9937
   27.0319
   27.0699
   27.1078
   27.1455
   27.1831
   27.2205
   27.2578
   27.2949
   27.3319
   27.3688
   27.4055
   27.4420
   27.4784
   27.5147
   27.5508
   27.5868
   27.6227
   27.6584
   27.6939
   27.7294
   27.7646
   27.7998
   27.8348
   27.8697
   27.9044
   27.9390
   27.9734
   28.0078
   28.0419
   28.0760
   28.1099
   28.1437
   28.1773
   28.2108
   28.2442
   28.2774
   28.3106
   28.3435
   28.3764
   28.4091
   28.4417
   28.4742
   28.5065
   28.5387
   28.5708
   28.6027
   28.6345
   28.6662
   28.6978
   28.7292
   28.7605
   28.7917
   28.8228
   28.8537
   28.8845
   28.9152
   28.9458
   28.9762
   29.0065
   29.0367
   29.0668
   29.0967
   29.1266
   29.1563
   29.1859
   29.2154
   29.2447
   29.2740
   29.3031
   29.3321
   29.3610
   29.3897
   29.4184
   29.4469
   29.4754
   29.5037
   29.5319
   29.5599
   29.5879
   29.6158
   29.6435
   29.6711
   29.6987
   29.7261
   29.7534
   29.7805
   29.8076
   29.8346
   29.8614
   29.8882
   29.9148
   29.9413
   29.9678
   29.9941
   30.0203
   30.0464
   30.0724
   30.0983
   30.1240
   30.1497
   30.1753
   30.2008
   30.2261
   30.2514
   30.2766
   30.3016
   30.3266
   30.3514
   30.3762
   30.4008
   30.4254
   30.4498
   30.4742
   30.4984
   30.5226
   30.5466
   30.5706
   30.5944
   30.6182
   30.6418
   30.6654
   30.6889
   30.7122
   30.7355
   30.7587
   30.7818
   30.8048
   30.8277
   30.8505
   30.8732
   30.8958
   30.9183
   30.9407
   30.9631
   30.9853
   31.0075
   31.0295
   31.0515
   31.0734
   31.0952
   31.1169
   31.1385
   31.1600
   31.1815
   31.2028
   31.2241
   31.2453
   31.2663
   31.2873
   31.3083
   31.3291
   31.3498
   31.3705
   31.3910
   31.4115
   31.4319
   31.4523
   31.4725
   31.4926
   31.5127
   31.5327
   31.5526
   31.5724
   31.5921
   31.6118
   31.6314
   31.6509
   31.6703
   31.6896
   31.7089
   31.7280
   31.7471
   31.7661
   31.7851
   31.8039
   31.8227
   31.8414
   31.8600
   31.8786
   31.8971
   31.9155
   31.9338
   31.9520
   31.9702
   31.9883
   32.0063
   32.0242
   32.0421
   32.0599
   32.0776
   32.0953
   32.1128
   32.1303
   32.1478
   32.1651
   32.1824
   32.1996
   32.2167
   32.2338
   32.2508
   32.2677
   32.2846
   32.3014
   32.3181
   32.3347
   32.3513
   32.3678
   32.3843
   32.4006
   32.4169
   32.4332
   32.4494
   32.4655
   32.4815
   32.4975
   32.5134
   32.5292
   32.5450
   32.5607
   32.5763
   32.5919
   32.6074
   32.6228
   32.6382
   32.6535
   32.6688
   32.6840
   32.6991
   32.7142
   32.7292
   32.7441
   32.7590
   32.7738
   32.7885
   32.8032
   32.8178
   32.8324
   32.8469
   32.8614
   32.8758
   32.8901
   32.9043
   32.9186
   32.9327
   32.9468
   32.9608
   32.9748
   32.9887
   33.0026
   33.0164
   33.0301
   33.0438
   33.0574
   33.0710
   33.0845
   33.0979
   33.1113
   33.1247
   33.1380
   33.1512
   33.1644
   33.1775
   33.1906
   33.2036
   33.2165
   33.2294
   33.2423
   33.2551
   33.2678
   33.2805
   33.2931
   33.3057
   33.3182
   33.3307
   33.3431
   33.3555
   33.3678
   33.3801
   33.3923
   33.4045
   33.4166
   33.4287
   33.4407
   33.4527
   33.4646
   33.4764
   33.4883
   33.5000
   33.5117
   33.5234
   33.5350
   33.5466
   33.5581
   33.5696
   33.5810
   33.5924
   33.6037
   33.6150
   33.6262
   33.6374
   33.6486
   33.6597
   33.6707
   33.6817
   33.6927
   33.7036
   33.7144
   33.7253
   33.7360
   33.7468
   33.7574
   33.7681
   33.7787
   33.7892
   33.7997
   33.8102
   33.8206
   33.8310
   33.8413
   33.8516
   33.8618
   33.8720
   33.8822
   33.8923
   33.9024
   33.9124
   33.9224
   33.9323
   33.9423
   33.9521
   33.9619
   33.9717
   33.9815
   33.9912
   34.0008
   34.0104
   34.0200
   34.0295
   34.0390
   34.0485
   34.0579
   34.0673
   34.0766
   34.0859
   34.0952
   34.1044
   34.1136
   34.1227
   34.1318
   34.1409
   34.1499
   34.1589
   34.1679
   34.1768
   34.1857
   34.1945
   34.2033
   34.2121
   34.2208
   34.2295
   34.2382
   34.2468
   34.2554
   34.2639
   34.2724
   34.2809
   34.2893
   34.2977
   34.3061
   34.3144
   34.3227
   34.3310
   34.3392
   34.3474
   34.3556
   34.3637
   34.3718
   34.3799
   34.3879
   34.3959
   34.4038
   34.4118
   34.4197
   34.4275
   34.4353
   34.4431
   34.4509
   34.4586
   34.4663
   34.4740
   34.4816
   34.4892
   34.4968
   34.5043
   34.5118
   34.5193
   34.5267
   34.5341
   34.5415
   34.5488
   34.5561
   34.5634
   34.5707
   34.5779
   34.5851
   34.5922
   34.5994
   34.6065
   34.6135
   34.6206
   34.6276
   34.6346
   34.6415
   34.6485
   34.6554
   34.6622
   34.6691
   34.6759
   34.6826
   34.6894
   34.6961
   34.7028
   34.7095
   34.7161
   34.7227
   34.7293
   34.7359
   34.7424
   34.7489
   34.7553
   34.7618
   34.7682
   34.7746
   34.7810
   34.7873
   34.7936
   34.7999
   34.8061
   34.8124
   34.8186
   34.8248
   34.8309
   34.8370
   34.8431
   34.8492
   34.8553
   34.8613
   34.8673
   34.8733
   34.8792
   34.8851
   34.8910
   34.8969
   34.9027
   34.9086
   34.9144
   34.9201
   34.9259
   34.9316
   34.9373
   34.9430
   34.9486
   34.9543
   34.9599
   34.9655
   34.9710
   34.9766
   34.9821
   34.9876
   34.9930
   34.9985
   35.0039
   35.0093
   35.0147
   35.0200
   35.0253
   35.0306
   35.0359
   35.0412
   35.0464
   35.0517
   35.0568
   35.0620
   35.0672
   35.0723
   35.0774
   35.0825
   35.0876
   35.0926
   35.0976
   35.1026
   35.1076
   35.1126
   35.1175
   35.1224
   35.1273
   35.1322
   35.1371
   35.1419
   35.1467
   35.1515
   35.1563
   35.1610
   35.1658
   35.1705
   35.1752
   35.1799
   35.1845
   35.1891
   35.1938
   35.1984
   35.2029
   35.2075
   35.2120
   35.2166
   35.2211
   35.2255
   35.2300
   35.2344
   35.2389
   35.2433
   35.2477
   35.2520
   35.2564
   35.2607
   35.2650
   35.2693
   35.2736
   35.2779
   35.2821
   35.2863
   35.2905
   35.2947
   35.2989
   35.3030
   35.3072
   35.3113
   35.3154
   35.3195
   35.3235
   35.3276
   35.3316
   35.3356
   35.3396
   35.3436
   35.3476
   35.3515
   35.3555
   35.3594
   35.3633
   35.3672
   35.3710
   35.3749
   35.3787
   35.3825
   35.3863
   35.3901
   35.3939
   35.3976
   35.4014
   35.4051
   35.4088
   35.4125
   35.4162
   35.4198
   35.4235
   35.4271
   35.4307
   35.4343
   35.4379
   35.4414
   35.4450
   35.4485
   35.4521
   35.4556
   35.4591
   35.4625
   35.4660
   35.4694
   35.4729
   35.4763
   35.4797
   35.4831
   35.4865
   35.4898
   35.4932
   35.4965
   35.4998
   35.5031
   35.5064
   35.5097
   35.5130
   35.5162
   35.5195
   35.5227
   35.5259
   35.5291
   35.5323
   35.5354
   35.5386
   35.5417
   35.5449
   35.5480
   35.5511
   35.5542
   35.5572
   35.5603
   35.5634
   35.5664
   35.5694
   35.5724
   35.5754
   35.5784
   35.5814
   35.5843
   35.5873
   35.5902
   35.5932
   35.5961
   35.5990
   35.6019
   35.6047
   35.6076
   35.6104
   35.6133
   35.6161
   35.6189
   35.6217
   35.6245
   35.6273
   35.6301
   35.6328
   35.6356
   35.6383
   35.6410
   35.6437
   35.6464
   35.6491
   35.6518
   35.6544
   35.6571
   35.6597
   35.6624
   35.6650
   35.6676
   35.6702
   35.6728
   35.6754
   35.6779
   35.6805
   35.6830
   35.6856
   35.6881
   35.6906
   35.6931
   35.6956
   35.6981
   35.7005
   35.7030
   35.7054
   35.7079
   35.7103
   35.7127
   35.7151
   35.7175
   35.7199
   35.7223
   35.7246
   35.7270
   35.7293
   35.7317
   35.7340
   35.7363
   35.7386
   35.7409
   35.7432
   35.7455
   35.7478
   35.7500
   35.7523
   35.7545
   35.7567
   35.7590
   35.7612
   35.7634
   35.7656
   35.7678
   35.7699
   35.7721
   35.7743
   35.7764
   35.7785
   35.7807
   35.7828
   35.7849
   35.7870
   35.7891
   35.7912
   35.7933
   35.7953
   35.7974
   35.7994
   35.8015
   35.8035
   35.8055
   35.8075
   35.8095
   35.8115
   35.8135
   35.8155
   35.8175
   35.8195
   35.8214
   35.8234
   35.8253
   35.8272
   35.8291
   35.8311
   35.8330
   35.8349
   35.8368
   35.8386
   35.8405
   35.8424
   35.8442
   35.8461
   35.8479
   35.8498
   35.8516
   35.8534
   35.8552
   35.8570
   35.8588
   35.8606
   35.8624
   35.8642
   35.8660
   35.8677
   35.8695
   35.8712
   35.8730
   35.8747
   35.8764
   35.8781
   35.8798
   35.8815
   35.8832
   35.8849
   35.8866
   35.8883
   35.8899
   35.8916
   35.8932
   35.8949
   35.8965
   35.8982
   35.8998
   35.9014
   35.9030
   35.9046
   35.9062
   35.9078
   35.9094
   35.9110
   35.9125
   35.9141
   35.9156
   35.9172
   35.9187
   35.9203
   35.9218
   35.9233
   35.9248
   35.9264
   35.9279
   35.9294
   35.9309
   35.9323
   35.9338
   35.9353
   35.9368
   35.9382
   35.9397
   35.9411
   35.9426
   35.9440
   35.9454
   35.9469
   35.9483
   35.9497
   35.9511
   35.9525
   35.9539
   35.9553
   35.9567
   35.9580
   35.9594
   35.9608
   35.9621
   35.9635
   35.9648
   35.9662
   35.9675
   35.9688
   35.9702
   35.9715
   35.9728
   35.9741
   35.9754
   35.9767
   35.9780
   35.9793
   35.9806
   35.9818
   35.9831
   35.9844
   35.9856
   35.9869
   35.9881
   35.9894
   35.9906
   35.9919
   35.9931
   35.9943
   35.9955
   35.9967
   35.9979
   35.9992
   36.0003
   36.0015
   36.0027
   36.0039
   36.0051
   36.0063
   36.0074
   36.0086
   36.0097
   36.0109
   36.0120
   36.0132
   36.0143
   36.0155
   36.0166
   36.0177
   36.0188
   36.0199
   36.0211
   36.0222
   36.0233
   36.0244
   36.0254
   36.0265
   36.0276
   36.0287
   36.0298
   36.0308
   36.0319
   36.0330
   36.0340
   36.0351
   36.0361
   36.0371
   36.0382
   36.0392
   36.0402
   36.0413
   36.0423
   36.0433
   36.0443
   36.0453
   36.0463
   36.0473
   36.0483
   36.0493
   36.0503
   36.0513
   36.0522
   36.0532
   36.0542
   36.0552
   36.0561
   36.0571
   36.0580
   36.0590
   36.0599
   36.0609
   36.0618
   36.0627
   36.0637
   36.0646
   36.0655
   36.0664
   36.0673
   36.0682
   36.0692
   36.0701
   36.0710
   36.0718
   36.0727
   36.0736
   36.0745
   36.0754
   36.0763
   36.0771
   36.0780
   36.0789
   36.0797
   36.0806
   36.0814
   36.0823
   36.0831
   36.0840
   36.0848
   36.0856
   36.0865
   36.0873
   36.0881
   36.0890
   36.0898
   36.0906
   36.0914
   36.0922
   36.0930
   36.0938
   36.0946
   36.0954
   36.0962
   36.0970
   36.0978
   36.0985
   36.0993
   36.1001
   36.1009
   36.1016
   36.1024
   36.1032
   36.1039
   36.1047
   36.1054
   36.1062
   36.1069
   36.1077
   36.1084
   36.1091
   36.1099
   36.1106
   36.1113
   36.1121
   36.1128
   36.1135
   36.1142
   36.1149
   36.1156
   36.1163
   36.1170
   36.1177
   36.1184
   36.1191
   36.1198
   36.1205
   36.1212
   36.1219
   36.1225
   36.1232
   36.1239
   36.1246
   36.1252
   36.1259
   36.1266
   36.1272
   36.1279
   36.1285
   36.1292
   36.1298
   36.1305
   36.1311
   36.1318
   36.1324
   36.1330
   36.1337
   36.1343
   36.1349
   36.1355
   36.1362
   36.1368
   36.1374
   36.1380
   36.1386
   36.1392
   36.1398
   36.1404
   36.1410
   36.1416
   36.1422
   36.1428
   36.1434
   36.1440
   36.1446
   36.1452
   36.1458
   36.1463
   36.1469
   36.1475
   36.1481
   36.1486
   36.1492
   36.1497
   36.1503
   36.1509
   36.1514
   36.1520
   36.1525
   36.1531
   36.1536
   36.1542
   36.1547
   36.1553
   36.1558
   36.1563
   36.1569
   36.1574
   36.1579
   36.1585
   36.1590
   36.1595
   36.1600
   36.1605
   36.1611
   36.1616
   36.1621
   36.1626
   36.1631
   36.1636
   36.1641
   36.1646
   36.1651
   36.1656
   36.1661
   36.1666
   36.1671
   36.1676
   36.1680
   36.1685
   36.1690
   36.1695
   36.1700
   36.1704
   36.1709
   36.1714
   36.1719
   36.1723
   36.1728
   36.1733
   36.1737
   36.1742
   36.1746
   36.1751
   36.1756
   36.1760
   36.1765
   36.1769
   36.1773
   36.1778
   36.1782
   36.1787
   36.1791
   36.1796
   36.1800
   36.1804
   36.1809
   36.1813
   36.1817
   36.1821
   36.1826
   36.1830

{Error using <a href="matlab:matlab.internal.language.introspective.errorDocCallback('InputOutputModel/subsref', 'C:\Program Files\MATLAB\R2016b\toolbox\shared\controllib\engine\@InputOutputModel\subsref.m', 43)" style="font-weight:bold">InputOutputModel/subsref</a> (<a href="matlab: opentoline('C:\Program Files\MATLAB\R2016b\toolbox\shared\controllib\engine\@InputOutputModel\subsref.m',43,0)">line 43</a>)
Subscript no. 1 is out of range.

Error in <a href="matlab:matlab.internal.language.introspective.errorDocCallback('Untitled5', 'C:\Users\yurdaer\Dropbox\MAH\2017-vår\Inbgyggda System och signaler\Reglerteknik\1504e\Untitled5.m', 75)" style="font-weight:bold">Untitled5</a> (<a href="matlab: opentoline('C:\Users\yurdaer\Dropbox\MAH\2017-vår\Inbgyggda System och signaler\Reglerteknik\1504e\Untitled5.m',75,0)">line 75</a>)
    yfsim(k)= sim22(k+1,1);
} 
Untitled5

a =

    0.9884


b =

    0.0719


G1 =
 
   0.07195
  ----------
  z - 0.9884
 
Sample time: 1 seconds
Discrete-time transfer function.


a =

    0.9958


b =

    0.0247


G2 =
 
   0.02475
  ----------
  z - 0.9958
 
Sample time: 1 seconds
Discrete-time transfer function.


sim22 =

         0
         0
    0.0018
    0.0053
    0.0106
    0.0175
    0.0261
    0.0364
    0.0483
    0.0618
    0.0768
    0.0934
    0.1115
    0.1311
    0.1521
    0.1746
    0.1985
    0.2238
    0.2505
    0.2785
    0.3078
    0.3385
    0.3704
    0.4036
    0.4380
    0.4736
    0.5104
    0.5484
    0.5876
    0.6279
    0.6693
    0.7118
    0.7553
    0.8000
    0.8456
    0.8923
    0.9400
    0.9886
    1.0383
    1.0888
    1.1403
    1.1927
    1.2460
    1.3002
    1.3552
    1.4111
    1.4678
    1.5254
    1.5837
    1.6428
    1.7027
    1.7633
    1.8247
    1.8867
    1.9495
    2.0130
    2.0772
    2.1420
    2.2075
    2.2736
    2.3403
    2.4077
    2.4757
    2.5442
    2.6133
    2.6830
    2.7532
    2.8240
    2.8952
    2.9670
    3.0393
    3.1121
    3.1854
    3.2591
    3.3333
    3.4079
    3.4830
    3.5585
    3.6344
    3.7107
    3.7874
    3.8645
    3.9419
    4.0198
    4.0979
    4.1765
    4.2553
    4.3345
    4.4140
    4.4938
    4.5739
    4.6543
    4.7350
    4.8159
    4.8972
    4.9786
    5.0604
    5.1423
    5.2245
    5.3070
    5.3896
    5.4725
    5.5555
    5.6388
    5.7222
    5.8059
    5.8897
    5.9736
    6.0578
    6.1421
    6.2265
    6.3111
    6.3958
    6.4806
    6.5656
    6.6507
    6.7359
    6.8211
    6.9065
    6.9920
    7.0776
    7.1633
    7.2490
    7.3348
    7.4207
    7.5066
    7.5926
    7.6786
    7.7647
    7.8508
    7.9369
    8.0231
    8.1093
    8.1956
    8.2818
    8.3681
    8.4543
    8.5406
    8.6269
    8.7131
    8.7994
    8.8856
    8.9719
    9.0581
    9.1442
    9.2304
    9.3165
    9.4026
    9.4886
    9.5746
    9.6606
    9.7465
    9.8323
    9.9181
   10.0038
   10.0895
   10.1750
   10.2606
   10.3460
   10.4314
   10.5167
   10.6019
   10.6870
   10.7720
   10.8570
   10.9418
   11.0266
   11.1112
   11.1958
   11.2802
   11.3646
   11.4488
   11.5329
   11.6169
   11.7008
   11.7846
   11.8682
   11.9518
   12.0352
   12.1184
   12.2016
   12.2846
   12.3675
   12.4502
   12.5328
   12.6153
   12.6976
   12.7798
   12.8619
   12.9438
   13.0255
   13.1071
   13.1886
   13.2698
   13.3510
   13.4320
   13.5128
   13.5935
   13.6740
   13.7543
   13.8345
   13.9145
   13.9943
   14.0740
   14.1535
   14.2329
   14.3121
   14.3911
   14.4699
   14.5485
   14.6270
   14.7053
   14.7834
   14.8614
   14.9391
   15.0167
   15.0941
   15.1713
   15.2484
   15.3252
   15.4019
   15.4784
   15.5547
   15.6308
   15.7067
   15.7824
   15.8580
   15.9333
   16.0085
   16.0834
   16.1582
   16.2328
   16.3072
   16.3814
   16.4553
   16.5291
   16.6027
   16.6762
   16.7494
   16.8224
   16.8952
   16.9678
   17.0402
   17.1124
   17.1845
   17.2563
   17.3279
   17.3993
   17.4705
   17.5415
   17.6123
   17.6829
   17.7534
   17.8236
   17.8936
   17.9634
   18.0329
   18.1023
   18.1715
   18.2405
   18.3093
   18.3779
   18.4462
   18.5144
   18.5824
   18.6501
   18.7177
   18.7850
   18.8522
   18.9191
   18.9858
   19.0524
   19.1187
   19.1848
   19.2507
   19.3164
   19.3819
   19.4472
   19.5123
   19.5772
   19.6419
   19.7063
   19.7706
   19.8347
   19.8986
   19.9622
   20.0257
   20.0889
   20.1520
   20.2148
   20.2774
   20.3399
   20.4021
   20.4641
   20.5259
   20.5876
   20.6490
   20.7102
   20.7712
   20.8320
   20.8926
   20.9530
   21.0132
   21.0732
   21.1330
   21.1926
   21.2520
   21.3112
   21.3702
   21.4290
   21.4876
   21.5460
   21.6042
   21.6622
   21.7200
   21.7776
   21.8350
   21.8923
   21.9493
   22.0061
   22.0627
   22.1191
   22.1753
   22.2314
   22.2872
   22.3428
   22.3983
   22.4535
   22.5086
   22.5635
   22.6181
   22.6726
   22.7269
   22.7810
   22.8349
   22.8886
   22.9421
   22.9954
   23.0486
   23.1015
   23.1543
   23.2069
   23.2592
   23.3114
   23.3634
   23.4153
   23.4669
   23.5183
   23.5696
   23.6207
   23.6716
   23.7223
   23.7728
   23.8231
   23.8733
   23.9232
   23.9730
   24.0226
   24.0720
   24.1213
   24.1703
   24.2192
   24.2679
   24.3164
   24.3648
   24.4129
   24.4609
   24.5087
   24.5564
   24.6038
   24.6511
   24.6982
   24.7451
   24.7919
   24.8384
   24.8848
   24.9311
   24.9771
   25.0230
   25.0687
   25.1143
   25.1596
   25.2048
   25.2499
   25.2947
   25.3394
   25.3839
   25.4283
   25.4724
   25.5165
   25.5603
   25.6040
   25.6475
   25.6909
   25.7341
   25.7771
   25.8199
   25.8626
   25.9052
   25.9475
   25.9897
   26.0318
   26.0737
   26.1154
   26.1570
   26.1984
   26.2396
   26.2807
   26.3216
   26.3624
   26.4030
   26.4435
   26.4838
   26.5239
   26.5639
   26.6038
   26.6434
   26.6830
   26.7223
   26.7616
   26.8006
   26.8396
   26.8783
   26.9169
   26.9554
   26.9937
   27.0319
   27.0699
   27.1078
   27.1455
   27.1831
   27.2205
   27.2578
   27.2949
   27.3319
   27.3688
   27.4055
   27.4420
   27.4784
   27.5147
   27.5508
   27.5868
   27.6227
   27.6584
   27.6939
   27.7294
   27.7646
   27.7998
   27.8348
   27.8697
   27.9044
   27.9390
   27.9734
   28.0078
   28.0419
   28.0760
   28.1099
   28.1437
   28.1773
   28.2108
   28.2442
   28.2774
   28.3106
   28.3435
   28.3764
   28.4091
   28.4417
   28.4742
   28.5065
   28.5387
   28.5708
   28.6027
   28.6345
   28.6662
   28.6978
   28.7292
   28.7605
   28.7917
   28.8228
   28.8537
   28.8845
   28.9152
   28.9458
   28.9762
   29.0065
   29.0367
   29.0668
   29.0967
   29.1266
   29.1563
   29.1859
   29.2154
   29.2447
   29.2740
   29.3031
   29.3321
   29.3610
   29.3897
   29.4184
   29.4469
   29.4754
   29.5037
   29.5319
   29.5599
   29.5879
   29.6158
   29.6435
   29.6711
   29.6987
   29.7261
   29.7534
   29.7805
   29.8076
   29.8346
   29.8614
   29.8882
   29.9148
   29.9413
   29.9678
   29.9941
   30.0203
   30.0464
   30.0724
   30.0983
   30.1240
   30.1497
   30.1753
   30.2008
   30.2261
   30.2514
   30.2766
   30.3016
   30.3266
   30.3514
   30.3762
   30.4008
   30.4254
   30.4498
   30.4742
   30.4984
   30.5226
   30.5466
   30.5706
   30.5944
   30.6182
   30.6418
   30.6654
   30.6889
   30.7122
   30.7355
   30.7587
   30.7818
   30.8048
   30.8277
   30.8505
   30.8732
   30.8958
   30.9183
   30.9407
   30.9631
   30.9853
   31.0075
   31.0295
   31.0515
   31.0734
   31.0952
   31.1169
   31.1385
   31.1600
   31.1815
   31.2028
   31.2241
   31.2453
   31.2663
   31.2873
   31.3083
   31.3291
   31.3498
   31.3705
   31.3910
   31.4115
   31.4319
   31.4523
   31.4725
   31.4926
   31.5127
   31.5327
   31.5526
   31.5724
   31.5921
   31.6118
   31.6314
   31.6509
   31.6703
   31.6896
   31.7089
   31.7280
   31.7471
   31.7661
   31.7851
   31.8039
   31.8227
   31.8414
   31.8600
   31.8786
   31.8971
   31.9155
   31.9338
   31.9520
   31.9702
   31.9883
   32.0063
   32.0242
   32.0421
   32.0599
   32.0776
   32.0953
   32.1128
   32.1303
   32.1478
   32.1651
   32.1824
   32.1996
   32.2167
   32.2338
   32.2508
   32.2677
   32.2846
   32.3014
   32.3181
   32.3347
   32.3513
   32.3678
   32.3843
   32.4006
   32.4169
   32.4332
   32.4494
   32.4655
   32.4815
   32.4975
   32.5134
   32.5292
   32.5450
   32.5607
   32.5763
   32.5919
   32.6074
   32.6228
   32.6382
   32.6535
   32.6688
   32.6840
   32.6991
   32.7142
   32.7292
   32.7441
   32.7590
   32.7738
   32.7885
   32.8032
   32.8178
   32.8324
   32.8469
   32.8614
   32.8758
   32.8901
   32.9043
   32.9186
   32.9327
   32.9468
   32.9608
   32.9748
   32.9887
   33.0026
   33.0164
   33.0301
   33.0438
   33.0574
   33.0710
   33.0845
   33.0979
   33.1113
   33.1247
   33.1380
   33.1512
   33.1644
   33.1775
   33.1906
   33.2036
   33.2165
   33.2294
   33.2423
   33.2551
   33.2678
   33.2805
   33.2931
   33.3057
   33.3182
   33.3307
   33.3431
   33.3555
   33.3678
   33.3801
   33.3923
   33.4045
   33.4166
   33.4287
   33.4407
   33.4527
   33.4646
   33.4764
   33.4883
   33.5000
   33.5117
   33.5234
   33.5350
   33.5466
   33.5581
   33.5696
   33.5810
   33.5924
   33.6037
   33.6150
   33.6262
   33.6374
   33.6486
   33.6597
   33.6707
   33.6817
   33.6927
   33.7036
   33.7144
   33.7253
   33.7360
   33.7468
   33.7574
   33.7681
   33.7787
   33.7892
   33.7997
   33.8102
   33.8206
   33.8310
   33.8413
   33.8516
   33.8618
   33.8720
   33.8822
   33.8923
   33.9024
   33.9124
   33.9224
   33.9323
   33.9423
   33.9521
   33.9619
   33.9717
   33.9815
   33.9912
   34.0008
   34.0104
   34.0200
   34.0295
   34.0390
   34.0485
   34.0579
   34.0673
   34.0766
   34.0859
   34.0952
   34.1044
   34.1136
   34.1227
   34.1318
   34.1409
   34.1499
   34.1589
   34.1679
   34.1768
   34.1857
   34.1945
   34.2033
   34.2121
   34.2208
   34.2295
   34.2382
   34.2468
   34.2554
   34.2639
   34.2724
   34.2809
   34.2893
   34.2977
   34.3061
   34.3144
   34.3227
   34.3310
   34.3392
   34.3474
   34.3556
   34.3637
   34.3718
   34.3799
   34.3879
   34.3959
   34.4038
   34.4118
   34.4197
   34.4275
   34.4353
   34.4431
   34.4509
   34.4586
   34.4663
   34.4740
   34.4816
   34.4892
   34.4968
   34.5043
   34.5118
   34.5193
   34.5267
   34.5341
   34.5415
   34.5488
   34.5561
   34.5634
   34.5707
   34.5779
   34.5851
   34.5922
   34.5994
   34.6065
   34.6135
   34.6206
   34.6276
   34.6346
   34.6415
   34.6485
   34.6554
   34.6622
   34.6691
   34.6759
   34.6826
   34.6894
   34.6961
   34.7028
   34.7095
   34.7161
   34.7227
   34.7293
   34.7359
   34.7424
   34.7489
   34.7553
   34.7618
   34.7682
   34.7746
   34.7810
   34.7873
   34.7936
   34.7999
   34.8061
   34.8124
   34.8186
   34.8248
   34.8309
   34.8370
   34.8431
   34.8492
   34.8553
   34.8613
   34.8673
   34.8733
   34.8792
   34.8851
   34.8910
   34.8969
   34.9027
   34.9086
   34.9144
   34.9201
   34.9259
   34.9316
   34.9373
   34.9430
   34.9486
   34.9543
   34.9599
   34.9655
   34.9710
   34.9766
   34.9821
   34.9876
   34.9930
   34.9985
   35.0039
   35.0093
   35.0147
   35.0200
   35.0253
   35.0306
   35.0359
   35.0412
   35.0464
   35.0517
   35.0568
   35.0620
   35.0672
   35.0723
   35.0774
   35.0825
   35.0876
   35.0926
   35.0976
   35.1026
   35.1076
   35.1126
   35.1175
   35.1224
   35.1273
   35.1322
   35.1371
   35.1419
   35.1467
   35.1515
   35.1563
   35.1610
   35.1658
   35.1705
   35.1752
   35.1799
   35.1845
   35.1891
   35.1938
   35.1984
   35.2029
   35.2075
   35.2120
   35.2166
   35.2211
   35.2255
   35.2300
   35.2344
   35.2389
   35.2433
   35.2477
   35.2520
   35.2564
   35.2607
   35.2650
   35.2693
   35.2736
   35.2779
   35.2821
   35.2863
   35.2905
   35.2947
   35.2989
   35.3030
   35.3072
   35.3113
   35.3154
   35.3195
   35.3235
   35.3276
   35.3316
   35.3356
   35.3396
   35.3436
   35.3476
   35.3515
   35.3555
   35.3594
   35.3633
   35.3672
   35.3710
   35.3749
   35.3787
   35.3825
   35.3863
   35.3901
   35.3939
   35.3976
   35.4014
   35.4051
   35.4088
   35.4125
   35.4162
   35.4198
   35.4235
   35.4271
   35.4307
   35.4343
   35.4379
   35.4414
   35.4450
   35.4485
   35.4521
   35.4556
   35.4591
   35.4625
   35.4660
   35.4694
   35.4729
   35.4763
   35.4797
   35.4831
   35.4865
   35.4898
   35.4932
   35.4965
   35.4998
   35.5031
   35.5064
   35.5097
   35.5130
   35.5162
   35.5195
   35.5227
   35.5259
   35.5291
   35.5323
   35.5354
   35.5386
   35.5417
   35.5449
   35.5480
   35.5511
   35.5542
   35.5572
   35.5603
   35.5634
   35.5664
   35.5694
   35.5724
   35.5754
   35.5784
   35.5814
   35.5843
   35.5873
   35.5902
   35.5932
   35.5961
   35.5990
   35.6019
   35.6047
   35.6076
   35.6104
   35.6133
   35.6161
   35.6189
   35.6217
   35.6245
   35.6273
   35.6301
   35.6328
   35.6356
   35.6383
   35.6410
   35.6437
   35.6464
   35.6491
   35.6518
   35.6544
   35.6571
   35.6597
   35.6624
   35.6650
   35.6676
   35.6702
   35.6728
   35.6754
   35.6779
   35.6805
   35.6830
   35.6856
   35.6881
   35.6906
   35.6931
   35.6956
   35.6981
   35.7005
   35.7030
   35.7054
   35.7079
   35.7103
   35.7127
   35.7151
   35.7175
   35.7199
   35.7223
   35.7246
   35.7270
   35.7293
   35.7317
   35.7340
   35.7363
   35.7386
   35.7409
   35.7432
   35.7455
   35.7478
   35.7500
   35.7523
   35.7545
   35.7567
   35.7590
   35.7612
   35.7634
   35.7656
   35.7678
   35.7699
   35.7721
   35.7743
   35.7764
   35.7785
   35.7807
   35.7828
   35.7849
   35.7870
   35.7891
   35.7912
   35.7933
   35.7953
   35.7974
   35.7994
   35.8015
   35.8035
   35.8055
   35.8075
   35.8095
   35.8115
   35.8135
   35.8155
   35.8175
   35.8195
   35.8214
   35.8234
   35.8253
   35.8272
   35.8291
   35.8311
   35.8330
   35.8349
   35.8368
   35.8386
   35.8405
   35.8424
   35.8442
   35.8461
   35.8479
   35.8498
   35.8516
   35.8534
   35.8552
   35.8570
   35.8588
   35.8606
   35.8624
   35.8642
   35.8660
   35.8677
   35.8695
   35.8712
   35.8730
   35.8747
   35.8764
   35.8781
   35.8798
   35.8815
   35.8832
   35.8849
   35.8866
   35.8883
   35.8899
   35.8916
   35.8932
   35.8949
   35.8965
   35.8982
   35.8998
   35.9014
   35.9030
   35.9046
   35.9062
   35.9078
   35.9094
   35.9110
   35.9125
   35.9141
   35.9156
   35.9172
   35.9187
   35.9203
   35.9218
   35.9233
   35.9248
   35.9264
   35.9279
   35.9294
   35.9309
   35.9323
   35.9338
   35.9353
   35.9368
   35.9382
   35.9397
   35.9411
   35.9426
   35.9440
   35.9454
   35.9469
   35.9483
   35.9497
   35.9511
   35.9525
   35.9539
   35.9553
   35.9567
   35.9580
   35.9594
   35.9608
   35.9621
   35.9635
   35.9648
   35.9662
   35.9675
   35.9688
   35.9702
   35.9715
   35.9728
   35.9741
   35.9754
   35.9767
   35.9780
   35.9793
   35.9806
   35.9818
   35.9831
   35.9844
   35.9856
   35.9869
   35.9881
   35.9894
   35.9906
   35.9919
   35.9931
   35.9943
   35.9955
   35.9967
   35.9979
   35.9992
   36.0003
   36.0015
   36.0027
   36.0039
   36.0051
   36.0063
   36.0074
   36.0086
   36.0097
   36.0109
   36.0120
   36.0132
   36.0143
   36.0155
   36.0166
   36.0177
   36.0188
   36.0199
   36.0211
   36.0222
   36.0233
   36.0244
   36.0254
   36.0265
   36.0276
   36.0287
   36.0298
   36.0308
   36.0319
   36.0330
   36.0340
   36.0351
   36.0361
   36.0371
   36.0382
   36.0392
   36.0402
   36.0413
   36.0423
   36.0433
   36.0443
   36.0453
   36.0463
   36.0473
   36.0483
   36.0493
   36.0503
   36.0513
   36.0522
   36.0532
   36.0542
   36.0552
   36.0561
   36.0571
   36.0580
   36.0590
   36.0599
   36.0609
   36.0618
   36.0627
   36.0637
   36.0646
   36.0655
   36.0664
   36.0673
   36.0682
   36.0692
   36.0701
   36.0710
   36.0718
   36.0727
   36.0736
   36.0745
   36.0754
   36.0763
   36.0771
   36.0780
   36.0789
   36.0797
   36.0806
   36.0814
   36.0823
   36.0831
   36.0840
   36.0848
   36.0856
   36.0865
   36.0873
   36.0881
   36.0890
   36.0898
   36.0906
   36.0914
   36.0922
   36.0930
   36.0938
   36.0946
   36.0954
   36.0962
   36.0970
   36.0978
   36.0985
   36.0993
   36.1001
   36.1009
   36.1016
   36.1024
   36.1032
   36.1039
   36.1047
   36.1054
   36.1062
   36.1069
   36.1077
   36.1084
   36.1091
   36.1099
   36.1106
   36.1113
   36.1121
   36.1128
   36.1135
   36.1142
   36.1149
   36.1156
   36.1163
   36.1170
   36.1177
   36.1184
   36.1191
   36.1198
   36.1205
   36.1212
   36.1219
   36.1225
   36.1232
   36.1239
   36.1246
   36.1252
   36.1259
   36.1266
   36.1272
   36.1279
   36.1285
   36.1292
   36.1298
   36.1305
   36.1311
   36.1318
   36.1324
   36.1330
   36.1337
   36.1343
   36.1349
   36.1355
   36.1362
   36.1368
   36.1374
   36.1380
   36.1386
   36.1392
   36.1398
   36.1404
   36.1410
   36.1416
   36.1422
   36.1428
   36.1434
   36.1440
   36.1446
   36.1452
   36.1458
   36.1463
   36.1469
   36.1475
   36.1481
   36.1486
   36.1492
   36.1497
   36.1503
   36.1509
   36.1514
   36.1520
   36.1525
   36.1531
   36.1536
   36.1542
   36.1547
   36.1553
   36.1558
   36.1563
   36.1569
   36.1574
   36.1579
   36.1585
   36.1590
   36.1595
   36.1600
   36.1605
   36.1611
   36.1616
   36.1621
   36.1626
   36.1631
   36.1636
   36.1641
   36.1646
   36.1651
   36.1656
   36.1661
   36.1666
   36.1671
   36.1676
   36.1680
   36.1685
   36.1690
   36.1695
   36.1700
   36.1704
   36.1709
   36.1714
   36.1719
   36.1723
   36.1728
   36.1733
   36.1737
   36.1742
   36.1746
   36.1751
   36.1756
   36.1760
   36.1765
   36.1769
   36.1773
   36.1778
   36.1782
   36.1787
   36.1791
   36.1796
   36.1800
   36.1804
   36.1809
   36.1813
   36.1817
   36.1821
   36.1826
   36.1830

Untitled5
Untitled5
Untitled5
Untitled5
Untitled5
Untitled5
